# From: Daniel Eisenstein <eisenste@cmb.as.arizona.edu>
# ../LRG/lrg.0701a.05.faruv
# Eisenstein, Hogg, and many others (2002)
# Average spectrum of SDSS LRGs at z~0.4-0.5
# lambda average_spectrum(flam)
2600.76001  0.188228
2601.36011  0.363361
2601.95996  0.278211
2602.55005  0.258052
2603.14990  0.348253
2603.75000  0.275979
2604.35010  0.247992
2604.94995  0.372696
2605.55005  0.108715
2606.14990  0.171629
2606.75000  0.388908
2607.35010  0.440688
2607.94995  0.350123
2608.55005  0.402093
2609.15991  0.104120
2609.76001  0.166823
2610.36011  0.108677
2610.95996  0.225035
2611.56006  0.195085
2612.15991  0.246869
2612.76001  0.308814
2613.36011  0.251328
2613.96997  0.254150
2614.57007  0.228079
2615.16992  0.225401
2615.77002  0.303515
2616.37012  0.326296
2616.97998  0.220789
2617.58008  0.229399
2618.17993  0.181222
2618.79004  0.170462
2619.38989  0.061770
2619.98999  0.332729
2620.59009  0.443730
2621.19995  0.314243
2621.80005  0.355893
2622.40991  0.441932
2623.01001  0.274061
2623.61011  0.187811
2624.21997  0.351095
2624.82007  0.249953
2625.42993  0.374355
2626.03003  0.235606
2626.63989  0.171526
2627.23999  0.327412
2627.85010  0.256752
2628.44995  0.259512
2629.06006  0.231743
2629.65991  0.170969
2630.27002  0.116463
2630.87012  0.342501
2631.47998  0.245384
2632.08008  0.181894
2632.68994  0.411858
2633.30005  0.392887
2633.89990  0.381847
2634.51001  0.273442
2635.12012  0.373230
2635.71997  0.413672
2636.33008  0.547072
2636.93994  0.442794
2637.55005  0.352778
2638.14990  0.290232
2638.76001  0.425476
2639.37012  0.446265
2639.97998  0.289849
2640.58008  0.320130
2641.18994  0.304284
2641.80005  0.317339
2642.40991  0.460736
2643.02002  0.380673
2643.62988  0.448198
2644.22998  0.422306
2644.84009  0.322950
2645.44995  0.480274
2646.06006  0.385959
2646.66992  0.397886
2647.28003  0.535256
2647.88989  0.296287
2648.50000  0.301435
2649.11011  0.396703
2649.71997  0.249725
2650.33008  0.342180
2650.93994  0.417642
2651.55005  0.552654
2652.15991  0.466449
2652.77002  0.381586
2653.37988  0.447025
2653.98999  0.393442
2654.60010  0.353878
2655.21997  0.403828
2655.83008  0.387871
2656.43994  0.377565
2657.05005  0.399466
2657.65991  0.357204
2658.27002  0.345670
2658.88989  0.411701
2659.50000  0.458249
2660.11011  0.380460
2660.71997  0.445925
2661.34009  0.241352
2661.94995  0.266515
2662.56006  0.376670
2663.17993  0.352382
2663.79004  0.397649
2664.39990  0.314083
2665.02002  0.357791
2665.62988  0.445315
2666.23999  0.413350
2666.86011  0.353697
2667.46997  0.280024
2668.09009  0.251802
2668.69995  0.372255
2669.32007  0.331049
2669.92993  0.311711
2670.54004  0.273931
2671.15991  0.274140
2671.78003  0.260484
2672.38989  0.409379
2673.01001  0.302510
2673.62012  0.314384
2674.23999  0.418738
2674.85010  0.330702
2675.46997  0.276942
2676.08008  0.420255
2676.69995  0.406813
2677.32007  0.297494
2677.92993  0.206665
2678.55005  0.276295
2679.16992  0.375472
2679.78003  0.363776
2680.39990  0.393176
2681.02002  0.418434
2681.63989  0.321145
2682.25000  0.354663
2682.87012  0.467064
2683.48999  0.446179
2684.11011  0.386988
2684.72998  0.468751
2685.34009  0.340737
2685.95996  0.361463
2686.58008  0.436155
2687.19995  0.343082
2687.82007  0.372358
2688.43994  0.437297
2689.06006  0.358342
2689.67993  0.313789
2690.29004  0.335954
2690.90991  0.181063
2691.53003  0.243005
2692.14990  0.347632
2692.77002  0.364403
2693.38989  0.328876
2694.01001  0.395132
2694.62988  0.272190
2695.26001  0.252887
2695.87988  0.339161
2696.50000  0.284055
2697.12012  0.263524
2697.73999  0.274776
2698.36011  0.198366
2698.97998  0.342936
2699.60010  0.322355
2700.21997  0.400671
2700.85010  0.353276
2701.46997  0.333304
2702.09009  0.372670
2702.70996  0.264984
2703.34009  0.339822
2703.95996  0.319003
2704.58008  0.426647
2705.19995  0.409875
2705.83008  0.321324
2706.44995  0.330272
2707.07007  0.249539
2707.69995  0.306508
2708.32007  0.354748
2708.93994  0.311401
2709.57007  0.296165
2710.18994  0.367528
2710.82007  0.360045
2711.43994  0.388475
2712.06006  0.280696
2712.68994  0.227559
2713.31006  0.265005
2713.93994  0.225324
2714.56006  0.334102
2715.18994  0.263175
2715.81006  0.332868
2716.43994  0.377080
2717.06006  0.368939
2717.68994  0.274604
2718.32007  0.234733
2718.93994  0.368511
2719.57007  0.368822
2720.18994  0.280876
2720.82007  0.226614
2721.44995  0.218301
2722.07007  0.313358
2722.69995  0.215936
2723.33008  0.250297
2723.94995  0.256527
2724.58008  0.218912
2725.20996  0.360030
2725.84009  0.397889
2726.45996  0.273807
2727.09009  0.321895
2727.71997  0.365806
2728.35010  0.357615
2728.97998  0.292877
2729.61011  0.323920
2730.22998  0.414188
2730.86011  0.280238
2731.48999  0.259149
2732.12012  0.266678
2732.75000  0.300937
2733.37988  0.320785
2734.01001  0.208543
2734.63989  0.186747
2735.27002  0.163157
2735.89990  0.253374
2736.53003  0.314493
2737.15991  0.193677
2737.79004  0.201910
2738.41992  0.238157
2739.05005  0.239467
2739.67993  0.205094
2740.31006  0.195988
2740.93994  0.177862
2741.57007  0.187081
2742.19995  0.172259
2742.84009  0.234910
2743.46997  0.259553
2744.10010  0.278406
2744.72998  0.283425
2745.36011  0.238332
2746.00000  0.204529
2746.62988  0.253199
2747.26001  0.121309
2747.88989  0.205741
2748.53003  0.257311
2749.15991  0.185296
2749.79004  0.139957
2750.42993  0.315036
2751.06006  0.216215
2751.68994  0.065400
2752.33008  0.274881
2752.95996  0.263519
2753.59009  0.300549
2754.22998  0.184974
2754.86011  0.213565
2755.50000  0.311258
2756.12988  0.162359
2756.77002  0.144593
2757.39990  0.213774
2758.04004  0.354134
2758.66992  0.263613
2759.31006  0.280910
2759.93994  0.180583
2760.58008  0.233659
2761.20996  0.281301
2761.85010  0.302732
2762.47998  0.351087
2763.12012  0.256789
2763.76001  0.235103
2764.38989  0.261011
2765.03003  0.301860
2765.66992  0.265155
2766.30005  0.299817
2766.93994  0.304131
2767.58008  0.135065
2768.21997  0.361308
2768.85010  0.310732
2769.48999  0.316012
2770.12988  0.312749
2770.77002  0.302857
2771.39990  0.256819
2772.04004  0.314450
2772.67993  0.373918
2773.32007  0.295109
2773.95996  0.322219
2774.60010  0.344635
2775.23999  0.320518
2775.87012  0.231849
2776.51001  0.268449
2777.14990  0.312766
2777.79004  0.222316
2778.42993  0.272893
2779.07007  0.273419
2779.70996  0.230375
2780.35010  0.308499
2780.98999  0.186154
2781.62988  0.163437
2782.27002  0.274870
2782.90991  0.268851
2783.56006  0.296312
2784.19995  0.242780
2784.84009  0.222729
2785.47998  0.299836
2786.12012  0.213420
2786.76001  0.218499
2787.39990  0.264284
2788.05005  0.223482
2788.68994  0.157659
2789.33008  0.231667
2789.96997  0.278746
2790.61011  0.236449
2791.26001  0.125828
2791.89990  0.057677
2792.54004  0.185660
2793.18994  0.197039
2793.83008  0.167104
2794.46997  0.145834
2795.12012  0.184719
2795.76001  0.134505
2796.39990  0.195633
2797.05005  0.231465
2797.68994  0.129485
2798.34009  0.149700
2798.97998  0.123874
2799.62988  0.142939
2800.27002  0.170124
2800.90991  0.065574
2801.56006  0.219451
2802.19995  0.165338
2802.85010  0.085820
2803.50000  0.172700
2804.13989  0.225625
2804.79004  0.235106
2805.42993  0.231670
2806.08008  0.114055
2806.72998  0.225359
2807.37012  0.189108
2808.02002  0.116067
2808.65991  0.225638
2809.31006  0.238368
2809.95996  0.247865
2810.61011  0.228203
2811.25000  0.246361
2811.89990  0.267998
2812.55005  0.214557
2813.19995  0.160557
2813.84009  0.191291
2814.48999  0.226643
2815.13989  0.280974
2815.79004  0.225428
2816.43994  0.332825
2817.08008  0.365897
2817.72998  0.321371
2818.37988  0.287354
2819.03003  0.311851
2819.67993  0.330234
2820.33008  0.328197
2820.97998  0.324902
2821.62988  0.310125
2822.28003  0.345358
2822.92993  0.311112
2823.58008  0.295509
2824.22998  0.339558
2824.87988  0.373193
2825.53003  0.272169
2826.17993  0.333506
2826.83008  0.381593
2827.47998  0.384330
2828.12988  0.338762
2828.78003  0.282454
2829.43994  0.351913
2830.09009  0.385465
2830.73999  0.360280
2831.38989  0.366253
2832.04004  0.507013
2832.69995  0.393273
2833.35010  0.265965
2834.00000  0.352745
2834.64990  0.399753
2835.31006  0.380829
2835.95996  0.320075
2836.61011  0.382360
2837.26001  0.415731
2837.91992  0.387947
2838.57007  0.405697
2839.22998  0.353275
2839.87988  0.275506
2840.53003  0.254024
2841.18994  0.404116
2841.84009  0.353283
2842.50000  0.352191
2843.14990  0.273135
2843.81006  0.334072
2844.45996  0.344670
2845.12012  0.247576
2845.77002  0.285974
2846.42993  0.420070
2847.08008  0.309290
2847.73999  0.276448
2848.38989  0.341297
2849.05005  0.287825
2849.69995  0.234904
2850.36011  0.258564
2851.02002  0.152417
2851.66992  0.172651
2852.33008  0.195771
2852.98999  0.249464
2853.63989  0.224007
2854.30005  0.196143
2854.95996  0.261200
2855.62012  0.165543
2856.27002  0.237000
2856.92993  0.224115
2857.59009  0.293147
2858.25000  0.354134
2858.90991  0.333696
2859.56006  0.364332
2860.21997  0.363766
2860.87988  0.378768
2861.54004  0.340487
2862.19995  0.342131
2862.86011  0.418975
2863.52002  0.395849
2864.17993  0.268507
2864.84009  0.373694
2865.50000  0.468984
2866.15991  0.356776
2866.82007  0.381556
2867.47998  0.323004
2868.13989  0.400606
2868.80005  0.435634
2869.45996  0.346379
2870.12012  0.350884
2870.78003  0.463097
2871.43994  0.450012
2872.10010  0.388180
2872.76001  0.403834
2873.42993  0.438933
2874.09009  0.508148
2874.75000  0.422959
2875.40991  0.324872
2876.07007  0.366227
2876.73999  0.420402
2877.39990  0.440314
2878.06006  0.438620
2878.71997  0.399693
2879.38989  0.418710
2880.05005  0.370768
2880.70996  0.306688
2881.37988  0.356808
2882.04004  0.424562
2882.69995  0.411420
2883.37012  0.340518
2884.03003  0.332396
2884.68994  0.401816
2885.36011  0.302048
2886.02002  0.338858
2886.68994  0.429641
2887.35010  0.386815
2888.02002  0.427490
2888.67993  0.450220
2889.35010  0.490528
2890.01001  0.479124
2890.67993  0.420309
2891.34009  0.505989
2892.01001  0.458541
2892.67993  0.414688
2893.34009  0.465041
2894.01001  0.463604
2894.67993  0.390526
2895.34009  0.448174
2896.01001  0.469129
2896.67993  0.538503
2897.34009  0.557319
2898.01001  0.452777
2898.67993  0.479926
2899.34009  0.509469
2900.01001  0.546628
2900.67993  0.500734
2901.35010  0.581515
2902.02002  0.599265
2902.67993  0.569304
2903.35010  0.628316
2904.02002  0.512110
2904.68994  0.564630
2905.36011  0.645680
2906.03003  0.591996
2906.69995  0.597748
2907.37012  0.625598
2908.04004  0.603772
2908.70996  0.509563
2909.37988  0.563644
2910.05005  0.525834
2910.71997  0.554670
2911.38989  0.630470
2912.06006  0.606063
2912.72998  0.548871
2913.39990  0.541792
2914.07007  0.590301
2914.73999  0.582320
2915.40991  0.547839
2916.08008  0.584225
2916.75000  0.595116
2917.42993  0.639794
2918.10010  0.494167
2918.77002  0.467970
2919.43994  0.581297
2920.11011  0.576692
2920.79004  0.501884
2921.45996  0.512743
2922.12988  0.600618
2922.81006  0.604137
2923.47998  0.508532
2924.14990  0.569435
2924.82007  0.586130
2925.50000  0.549105
2926.16992  0.556311
2926.85010  0.489418
2927.52002  0.477479
2928.18994  0.464997
2928.87012  0.527171
2929.54004  0.534242
2930.21997  0.547374
2930.88989  0.640588
2931.57007  0.509612
2932.23999  0.542444
2932.91992  0.651746
2933.59009  0.595815
2934.27002  0.573481
2934.93994  0.527092
2935.62012  0.592255
2936.30005  0.576213
2936.96997  0.552647
2937.64990  0.483140
2938.33008  0.490467
2939.00000  0.526996
2939.67993  0.503084
2940.36011  0.569571
2941.03003  0.563579
2941.70996  0.532878
2942.38989  0.609121
2943.07007  0.627831
2943.73999  0.551661
2944.41992  0.550339
2945.10010  0.489040
2945.78003  0.474023
2946.45996  0.560763
2947.12988  0.620232
2947.81006  0.532136
2948.48999  0.562197
2949.16992  0.473253
2949.85010  0.498673
2950.53003  0.473035
2951.20996  0.529816
2951.88989  0.560434
2952.57007  0.513089
2953.25000  0.525083
2953.92993  0.541190
2954.61011  0.561511
2955.29004  0.543407
2955.96997  0.603086
2956.64990  0.637101
2957.33008  0.583664
2958.01001  0.512228
2958.68994  0.539060
2959.37012  0.558272
2960.06006  0.536633
2960.73999  0.489577
2961.41992  0.505127
2962.10010  0.595247
2962.78003  0.661744
2963.46997  0.583495
2964.14990  0.543369
2964.83008  0.562559
2965.51001  0.511427
2966.19995  0.532698
2966.87988  0.552831
2967.56006  0.465236
2968.25000  0.451289
2968.92993  0.481081
2969.61011  0.490385
2970.30005  0.506994
2970.97998  0.442400
2971.66992  0.400107
2972.35010  0.521699
2973.03003  0.515862
2973.71997  0.493802
2974.39990  0.511752
2975.09009  0.459394
2975.77002  0.563115
2976.45996  0.633057
2977.13989  0.580638
2977.83008  0.593178
2978.52002  0.580433
2979.19995  0.530294
2979.88989  0.473760
2980.57007  0.534642
2981.26001  0.495551
2981.94995  0.514614
2982.62988  0.532914
2983.32007  0.415101
2984.01001  0.384410
2984.68994  0.420264
2985.37988  0.418335
2986.07007  0.532696
2986.76001  0.487989
2987.43994  0.466530
2988.12988  0.447783
2988.82007  0.424230
2989.51001  0.506898
2990.19995  0.525151
2990.88989  0.521320
2991.57007  0.493464
2992.26001  0.565343
2992.94995  0.582241
2993.63989  0.546385
2994.33008  0.639158
2995.02002  0.565344
2995.70996  0.480075
2996.39990  0.550130
2997.09009  0.580870
2997.78003  0.552074
2998.46997  0.531465
2999.15991  0.521397
2999.85010  0.396268
3000.54004  0.501270
3001.22998  0.523846
3001.92993  0.443620
3002.62012  0.448232
3003.31006  0.423199
3004.00000  0.456585
3004.68994  0.542439
3005.37988  0.512408
3006.08008  0.512641
3006.77002  0.533992
3007.45996  0.475405
3008.14990  0.493697
3008.85010  0.530718
3009.54004  0.526876
3010.22998  0.514962
3010.91992  0.486850
3011.62012  0.519974
3012.31006  0.538799
3013.01001  0.519827
3013.69995  0.529961
3014.38989  0.530492
3015.09009  0.568349
3015.78003  0.505837
3016.47998  0.491748
3017.16992  0.564515
3017.87012  0.542025
3018.56006  0.453909
3019.26001  0.476207
3019.94995  0.501174
3020.64990  0.409421
3021.34009  0.383437
3022.04004  0.506594
3022.72998  0.435870
3023.42993  0.477352
3024.12988  0.535075
3024.82007  0.506957
3025.52002  0.525676
3026.21997  0.611001
3026.90991  0.607370
3027.61011  0.549778
3028.31006  0.512503
3029.00000  0.636311
3029.69995  0.650604
3030.39990  0.611475
3031.10010  0.635233
3031.80005  0.652658
3032.48999  0.636927
3033.18994  0.591635
3033.88989  0.676629
3034.59009  0.682384
3035.29004  0.630742
3035.98999  0.627716
3036.68994  0.606128
3037.38989  0.597567
3038.08008  0.676579
3038.78003  0.602543
3039.47998  0.593514
3040.17993  0.597048
3040.87988  0.501141
3041.58008  0.535443
3042.28003  0.569915
3042.98999  0.553949
3043.68994  0.565628
3044.38989  0.587254
3045.09009  0.580292
3045.79004  0.557562
3046.48999  0.622487
3047.18994  0.634657
3047.88989  0.617348
3048.60010  0.640683
3049.30005  0.638344
3050.00000  0.603900
3050.69995  0.634011
3051.40991  0.695379
3052.11011  0.615344
3052.81006  0.596531
3053.51001  0.594595
3054.21997  0.641036
3054.91992  0.630443
3055.62012  0.599465
3056.33008  0.612559
3057.03003  0.620075
3057.73999  0.508429
3058.43994  0.557989
3059.13989  0.532197
3059.85010  0.566010
3060.55005  0.614064
3061.26001  0.523162
3061.95996  0.507583
3062.66992  0.504502
3063.37012  0.563026
3064.08008  0.560245
3064.78003  0.578219
3065.48999  0.533495
3066.19995  0.532677
3066.89990  0.541346
3067.61011  0.587541
3068.31006  0.574705
3069.02002  0.585788
3069.72998  0.536037
3070.42993  0.566632
3071.13989  0.552247
3071.85010  0.598192
3072.56006  0.648396
3073.26001  0.607351
3073.96997  0.575127
3074.67993  0.590277
3075.38989  0.589514
3076.10010  0.555726
3076.80005  0.583172
3077.51001  0.693631
3078.21997  0.635951
3078.92993  0.607630
3079.63989  0.669585
3080.35010  0.641869
3081.06006  0.654653
3081.77002  0.655191
3082.47998  0.626472
3083.18994  0.635838
3083.89990  0.618953
3084.61011  0.615918
3085.32007  0.633452
3086.03003  0.621211
3086.73999  0.629977
3087.44995  0.564320
3088.15991  0.567432
3088.87012  0.603279
3089.58008  0.603775
3090.29004  0.548332
3091.01001  0.506183
3091.71997  0.477428
3092.42993  0.544155
3093.13989  0.570176
3093.85010  0.516986
3094.57007  0.469144
3095.28003  0.495635
3095.98999  0.529902
3096.70996  0.480421
3097.41992  0.524602
3098.12988  0.540914
3098.85010  0.486275
3099.56006  0.512432
3100.27002  0.574263
3100.98999  0.586689
3101.69995  0.505002
3102.40991  0.531230
3103.12988  0.595072
3103.84009  0.627283
3104.56006  0.581732
3105.27002  0.573903
3105.98999  0.595161
3106.69995  0.635074
3107.41992  0.673720
3108.13989  0.703695
3108.85010  0.734758
3109.57007  0.753811
3110.28003  0.672671
3111.00000  0.751300
3111.71997  0.770814
3112.42993  0.697267
3113.14990  0.625740
3113.87012  0.722604
3114.58008  0.697928
3115.30005  0.691986
3116.02002  0.762452
3116.73999  0.671459
3117.44995  0.685202
3118.16992  0.743284
3118.88989  0.672326
3119.61011  0.593372
3120.33008  0.600143
3121.04004  0.624008
3121.76001  0.620083
3122.47998  0.660216
3123.19995  0.668808
3123.91992  0.616434
3124.63989  0.590511
3125.36011  0.600486
3126.08008  0.646246
3126.80005  0.636304
3127.52002  0.629661
3128.23999  0.650083
3128.95996  0.592344
3129.67993  0.612232
3130.39990  0.642323
3131.12012  0.618735
3131.84009  0.615888
3132.56006  0.635136
3133.28003  0.704447
3134.01001  0.689778
3134.72998  0.635599
3135.44995  0.677754
3136.16992  0.699395
3136.88989  0.648977
3137.62012  0.688898
3138.34009  0.714355
3139.06006  0.762773
3139.78003  0.734061
3140.51001  0.728027
3141.22998  0.670011
3141.94995  0.684422
3142.67993  0.683827
3143.39990  0.699664
3144.12988  0.615071
3144.85010  0.606310
3145.57007  0.660301
3146.30005  0.636135
3147.02002  0.624531
3147.75000  0.620045
3148.46997  0.597199
3149.19995  0.637773
3149.91992  0.692119
3150.64990  0.727171
3151.37012  0.718353
3152.10010  0.702032
3152.83008  0.747508
3153.55005  0.655591
3154.28003  0.707135
3155.00000  0.632914
3155.72998  0.607745
3156.45996  0.631576
3157.17993  0.616116
3157.90991  0.582185
3158.63989  0.604223
3159.37012  0.596278
3160.09009  0.509241
3160.82007  0.609461
3161.55005  0.600717
3162.28003  0.579507
3163.01001  0.564908
3163.72998  0.581139
3164.45996  0.668352
3165.18994  0.656329
3165.91992  0.629008
3166.64990  0.601982
3167.37988  0.641079
3168.11011  0.698393
3168.84009  0.684526
3169.57007  0.744218
3170.30005  0.777644
3171.03003  0.752911
3171.76001  0.794946
3172.48999  0.775297
3173.21997  0.783687
3173.94995  0.851073
3174.67993  0.807571
3175.40991  0.770178
3176.13989  0.768569
3176.87012  0.827379
3177.60010  0.734905
3178.34009  0.770877
3179.07007  0.733320
3179.80005  0.670269
3180.53003  0.687123
3181.27002  0.702360
3182.00000  0.663114
3182.72998  0.681570
3183.45996  0.631103
3184.19995  0.632291
3184.92993  0.652321
3185.65991  0.598400
3186.39990  0.629483
3187.12988  0.705333
3187.86011  0.700157
3188.60010  0.682649
3189.33008  0.681569
3190.07007  0.700165
3190.80005  0.691186
3191.54004  0.700475
3192.27002  0.640779
3193.01001  0.656761
3193.73999  0.639722
3194.47998  0.689766
3195.20996  0.715327
3195.94995  0.706227
3196.68994  0.686771
3197.41992  0.779871
3198.15991  0.750483
3198.88989  0.708326
3199.62988  0.803522
3200.37012  0.802055
3201.10010  0.728601
3201.84009  0.751674
3202.58008  0.782527
3203.32007  0.780398
3204.05005  0.784574
3204.79004  0.769792
3205.53003  0.794355
3206.27002  0.801403
3207.01001  0.801909
3207.75000  0.800941
3208.47998  0.805154
3209.21997  0.718267
3209.95996  0.682857
3210.69995  0.695011
3211.43994  0.718201
3212.17993  0.670938
3212.91992  0.682645
3213.65991  0.645172
3214.39990  0.690329
3215.13989  0.688658
3215.87988  0.691872
3216.62012  0.724138
3217.36011  0.713235
3218.10010  0.753639
3218.84009  0.758227
3219.58008  0.724968
3220.33008  0.733456
3221.07007  0.711015
3221.81006  0.741386
3222.55005  0.676161
3223.29004  0.698799
3224.04004  0.721143
3224.78003  0.675474
3225.52002  0.657853
3226.26001  0.628924
3227.01001  0.641870
3227.75000  0.594804
3228.48999  0.562146
3229.23999  0.679704
3229.97998  0.628150
3230.71997  0.650515
3231.46997  0.652329
3232.20996  0.630587
3232.95996  0.623749
3233.69995  0.635002
3234.44995  0.664979
3235.18994  0.624391
3235.93994  0.616139
3236.67993  0.675888
3237.42993  0.677353
3238.16992  0.649628
3238.91992  0.670473
3239.65991  0.713557
3240.40991  0.733620
3241.15991  0.784617
3241.89990  0.694313
3242.64990  0.728845
3243.39990  0.745162
3244.13989  0.785982
3244.88989  0.760477
3245.63989  0.767505
3246.37988  0.745114
3247.12988  0.725151
3247.87988  0.803486
3248.62988  0.770064
3249.37988  0.744810
3250.12012  0.789285
3250.87012  0.766628
3251.62012  0.731499
3252.37012  0.768829
3253.12012  0.755500
3253.87012  0.789790
3254.62012  0.864597
3255.37012  0.839273
3256.12012  0.831705
3256.87012  0.892067
3257.62012  0.876510
3258.37012  0.909628
3259.12012  0.985294
3259.87012  0.938454
3260.62012  0.950523
3261.37012  0.887026
3262.12012  0.953245
3262.87012  0.938047
3263.62012  0.879454
3264.37012  0.902826
3265.12988  0.898655
3265.87988  0.911996
3266.62988  0.933832
3267.37988  1.012592
3268.12988  0.925670
3268.88989  0.930887
3269.63989  0.954757
3270.38989  0.903751
3271.14990  0.894825
3271.89990  0.915104
3272.64990  0.819406
3273.40991  0.899234
3274.15991  0.974486
3274.90991  0.895669
3275.66992  0.836918
3276.41992  0.887265
3277.17993  0.928646
3277.92993  0.943046
3278.68994  0.894750
3279.43994  0.876700
3280.19995  0.839500
3280.94995  0.881058
3281.70996  0.934214
3282.45996  0.910090
3283.21997  0.907986
3283.97998  0.885512
3284.72998  0.833124
3285.48999  0.881016
3286.23999  0.805596
3287.00000  0.869593
3287.76001  0.861319
3288.52002  0.838299
3289.27002  0.949422
3290.03003  0.892798
3290.79004  0.855923
3291.55005  0.941280
3292.30005  0.998687
3293.06006  0.990187
3293.82007  0.973441
3294.58008  1.042861
3295.34009  1.075867
3296.10010  1.039530
3296.86011  1.057647
3297.61011  1.060617
3298.37012  1.025441
3299.12988  1.028675
3299.88989  1.090946
3300.64990  1.076524
3301.40991  1.014158
3302.16992  1.012005
3302.92993  1.041754
3303.68994  0.942893
3304.45996  0.966106
3305.21997  0.993693
3305.97998  0.955600
3306.73999  0.930125
3307.50000  0.930153
3308.26001  0.952304
3309.02002  0.987981
3309.79004  0.933319
3310.55005  0.934250
3311.31006  0.911558
3312.07007  0.938144
3312.84009  0.939533
3313.60010  0.933035
3314.36011  0.916700
3315.12012  0.944744
3315.88989  0.927633
3316.64990  0.905836
3317.41992  0.949454
3318.17993  0.980392
3318.93994  0.940972
3319.70996  0.943776
3320.46997  0.936725
3321.23999  0.925074
3322.00000  0.960193
3322.77002  0.920925
3323.53003  0.904273
3324.30005  0.894688
3325.06006  0.902283
3325.83008  0.924762
3326.59009  0.920849
3327.36011  0.923043
3328.12988  0.946496
3328.88989  0.931862
3329.65991  0.883795
3330.42993  0.911281
3331.18994  0.918816
3331.95996  0.890347
3332.72998  0.918917
3333.50000  0.902685
3334.26001  0.890329
3335.03003  0.859515
3335.80005  0.833770
3336.57007  0.855802
3337.34009  0.900284
3338.10010  0.882549
3338.87012  0.814447
3339.63989  0.842431
3340.40991  0.839011
3341.17993  0.875117
3341.94995  0.944589
3342.71997  0.891594
3343.48999  0.944626
3344.26001  0.950140
3345.03003  0.919938
3345.80005  0.919692
3346.57007  0.919964
3347.34009  0.939840
3348.11011  0.920581
3348.87988  0.970578
3349.64990  0.918800
3350.41992  0.871977
3351.19995  0.921019
3351.96997  0.915407
3352.73999  0.934092
3353.51001  0.975252
3354.28003  0.935169
3355.06006  0.969807
3355.83008  0.960550
3356.60010  0.889952
3357.37988  0.930345
3358.14990  0.915627
3358.91992  0.871555
3359.69995  0.847592
3360.46997  0.762665
3361.23999  0.742987
3362.02002  0.779416
3362.79004  0.766375
3363.57007  0.758789
3364.34009  0.780682
3365.11011  0.817255
3365.88989  0.818290
3366.65991  0.822497
3367.43994  0.829323
3368.21997  0.792134
3368.98999  0.805785
3369.77002  0.773129
3370.54004  0.766166
3371.32007  0.794533
3372.10010  0.804420
3372.87012  0.732425
3373.64990  0.757311
3374.42993  0.833261
3375.19995  0.809684
3375.97998  0.829691
3376.76001  0.848846
3377.54004  0.831782
3378.31006  0.875486
3379.09009  0.848464
3379.87012  0.853197
3380.64990  0.862825
3381.42993  0.811332
3382.19995  0.862931
3382.97998  0.874104
3383.76001  0.886203
3384.54004  0.884942
3385.32007  0.861566
3386.10010  0.872696
3386.87988  0.889098
3387.65991  0.929040
3388.43994  0.908560
3389.21997  0.902458
3390.00000  0.919215
3390.78003  0.926151
3391.56006  0.907253
3392.34009  0.921588
3393.12988  0.872488
3393.90991  0.890981
3394.68994  0.923920
3395.46997  0.934251
3396.25000  0.921619
3397.03003  0.986110
3397.82007  0.950698
3398.60010  0.977922
3399.37988  1.050189
3400.15991  1.002396
3400.94995  1.018666
3401.72998  1.069429
3402.51001  1.009866
3403.30005  1.044120
3404.08008  1.041598
3404.86011  0.993944
3405.64990  0.982785
3406.42993  0.940122
3407.21997  0.968245
3408.00000  0.963238
3408.79004  0.910226
3409.57007  0.936939
3410.36011  0.976620
3411.13989  0.953754
3411.92993  0.969527
3412.70996  0.907286
3413.50000  0.897562
3414.29004  0.847400
3415.07007  0.935793
3415.86011  0.966249
3416.64990  0.879293
3417.42993  0.928808
3418.21997  0.941467
3419.01001  0.961426
3419.79004  0.990217
3420.58008  1.021761
3421.37012  1.026562
3422.15991  1.008785
3422.93994  1.005352
3423.72998  1.032136
3424.52002  1.015215
3425.31006  1.014445
3426.10010  1.030593
3426.88989  1.015714
3427.67993  1.033026
3428.46997  1.022543
3429.26001  1.048659
3430.05005  1.027353
3430.84009  1.063747
3431.62988  1.077227
3432.41992  1.040995
3433.20996  1.020108
3434.00000  1.029266
3434.79004  1.044948
3435.58008  0.972005
3436.37012  0.951412
3437.15991  0.901521
3437.94995  0.927960
3438.73999  0.926241
3439.54004  0.824210
3440.33008  0.833729
3441.12012  0.862956
3441.90991  0.878333
3442.70996  0.842080
3443.50000  0.760928
3444.29004  0.754967
3445.08008  0.797200
3445.87988  0.815809
3446.66992  0.867699
3447.46997  0.910260
3448.26001  0.867684
3449.05005  0.911075
3449.85010  0.949465
3450.63989  0.996497
3451.43994  1.003324
3452.22998  0.993727
3453.03003  1.018412
3453.82007  0.976447
3454.62012  0.966683
3455.40991  1.017724
3456.20996  1.036278
3457.00000  1.007888
3457.80005  0.998263
3458.60010  0.968041
3459.38989  0.950413
3460.18994  0.942564
3460.98999  0.916735
3461.78003  0.884679
3462.58008  0.955170
3463.37988  0.954811
3464.17993  0.924969
3464.96997  0.981555
3465.77002  0.953790
3466.57007  0.964156
3467.37012  0.991286
3468.16992  0.964210
3468.95996  1.038142
3469.76001  1.002530
3470.56006  1.010201
3471.36011  1.000568
3472.15991  0.966598
3472.95996  0.930119
3473.76001  0.913505
3474.56006  0.887368
3475.36011  0.903750
3476.15991  0.900368
3476.95996  0.929620
3477.76001  0.951376
3478.56006  0.872894
3479.36011  0.938308
3480.16992  0.939262
3480.96997  0.937451
3481.77002  0.988977
3482.57007  0.990124
3483.37012  0.946833
3484.16992  0.966052
3484.97998  1.009449
3485.78003  1.006254
3486.58008  0.959958
3487.37988  0.958041
3488.18994  0.946422
3488.98999  0.967606
3489.79004  0.972031
3490.60010  0.922439
3491.39990  0.927238
3492.20996  0.914633
3493.01001  0.925359
3493.81006  0.950341
3494.62012  0.888315
3495.41992  0.858204
3496.22998  0.894862
3497.03003  0.933279
3497.84009  0.986080
3498.64990  0.971244
3499.44995  0.997275
3500.26001  1.018570
3501.06006  1.061649
3501.87012  1.069116
3502.67993  1.063709
3503.47998  1.079853
3504.29004  1.088877
3505.10010  1.115383
3505.89990  1.052169
3506.70996  1.061526
3507.52002  1.118390
3508.33008  1.023166
3509.12988  1.042528
3509.93994  1.026402
3510.75000  0.998969
3511.56006  0.987217
3512.37012  0.949208
3513.17993  0.948159
3513.97998  0.989795
3514.79004  0.984684
3515.60010  0.988481
3516.40991  1.012206
3517.21997  0.992124
3518.03003  0.997098
3518.84009  0.986204
3519.64990  1.026148
3520.45996  0.960115
3521.27002  0.953807
3522.09009  0.996298
3522.89990  0.905969
3523.70996  0.888280
3524.52002  0.936689
3525.33008  0.928676
3526.13989  0.908043
3526.94995  0.854099
3527.77002  0.909785
3528.58008  0.882509
3529.38989  0.928575
3530.19995  0.984489
3531.02002  1.025314
3531.83008  0.995684
3532.63989  0.975890
3533.45996  1.031144
3534.27002  1.050948
3535.09009  1.046406
3535.89990  1.036797
3536.70996  1.066433
3537.53003  1.113222
3538.34009  1.132838
3539.15991  1.097961
3539.96997  1.113931
3540.79004  1.085622
3541.60010  1.083831
3542.41992  1.121555
3543.22998  1.119447
3544.05005  1.073208
3544.87012  1.057158
3545.67993  1.089099
3546.50000  1.071284
3547.32007  1.059207
3548.12988  1.068497
3548.94995  1.043252
3549.77002  1.071803
3550.58008  1.068816
3551.39990  1.010747
3552.21997  1.039195
3553.04004  1.014974
3553.86011  1.008067
3554.66992  1.004656
3555.48999  0.991746
3556.31006  0.982351
3557.12988  0.977616
3557.94995  1.003630
3558.77002  1.043846
3559.59009  0.997045
3560.40991  0.999554
3561.22998  1.008190
3562.05005  0.921065
3562.87012  0.953395
3563.68994  1.008246
3564.51001  0.957413
3565.33008  0.905204
3566.14990  0.902446
3566.96997  0.856989
3567.79004  0.857898
3568.62012  0.874851
3569.43994  0.832724
3570.26001  0.829934
3571.08008  0.841953
3571.89990  0.837939
3572.72998  0.850851
3573.55005  0.887684
3574.37012  0.858704
3575.19995  0.859818
3576.02002  0.851588
3576.84009  0.863618
3577.66992  0.830426
3578.48999  0.831749
3579.31006  0.870166
3580.13989  0.796020
3580.95996  0.774444
3581.79004  0.743905
3582.61011  0.750021
3583.43994  0.781414
3584.26001  0.725001
3585.09009  0.727131
3585.90991  0.778368
3586.73999  0.736263
3587.57007  0.703461
3588.38989  0.751612
3589.21997  0.767477
3590.04004  0.842919
3590.87012  0.901433
3591.69995  0.878724
3592.53003  0.901022
3593.35010  0.949768
3594.17993  1.000997
3595.01001  1.034932
3595.84009  1.002543
3596.65991  1.071792
3597.48999  1.109602
3598.32007  1.100175
3599.14990  1.160290
3599.97998  1.121422
3600.81006  1.139818
3601.63989  1.133402
3602.46997  1.089195
3603.30005  1.031054
3604.12988  1.013332
3604.95996  1.027954
3605.79004  1.017349
3606.62012  0.983039
3607.44995  1.007367
3608.28003  0.898080
3609.11011  0.899024
3609.93994  0.930228
3610.77002  0.939659
3611.60010  0.954165
3612.42993  0.968143
3613.27002  1.015261
3614.10010  0.992818
3614.92993  0.999040
3615.76001  0.987380
3616.60010  0.993291
3617.42993  0.979890
3618.26001  0.974686
3619.09009  0.990635
3619.92993  0.941225
3620.76001  0.952147
3621.60010  1.042376
3622.42993  0.999061
3623.26001  1.030698
3624.10010  1.038748
3624.92993  1.069256
3625.77002  1.163863
3626.60010  1.145526
3627.43994  1.152160
3628.27002  1.129058
3629.11011  1.106075
3629.93994  1.107687
3630.78003  1.084868
3631.62012  1.012403
3632.44995  1.046202
3633.29004  1.032128
3634.12988  0.951863
3634.95996  0.977846
3635.80005  1.066978
3636.63989  1.052409
3637.46997  1.084550
3638.31006  1.103996
3639.14990  1.093331
3639.98999  1.140245
3640.83008  1.131440
3641.65991  1.190798
3642.50000  1.140950
3643.34009  1.106799
3644.17993  1.107059
3645.02002  1.114489
3645.86011  1.126655
3646.69995  1.102443
3647.54004  1.096750
3648.37988  1.111023
3649.21997  1.091712
3650.06006  1.095859
3650.89990  1.129287
3651.73999  1.115168
3652.58008  1.127682
3653.41992  1.185490
3654.26001  1.142376
3655.11011  1.227620
3655.94995  1.247238
3656.79004  1.295523
3657.62988  1.313201
3658.46997  1.345237
3659.32007  1.319197
3660.15991  1.331814
3661.00000  1.350313
3661.84009  1.351646
3662.68994  1.302544
3663.53003  1.312649
3664.37012  1.312205
3665.21997  1.262624
3666.06006  1.255740
3666.90991  1.237413
3667.75000  1.236205
3668.60010  1.247212
3669.43994  1.242642
3670.29004  1.284953
3671.12988  1.282460
3671.97998  1.244523
3672.82007  1.202828
3673.66992  1.258073
3674.51001  1.283153
3675.36011  1.318867
3676.20996  1.269764
3677.05005  1.247566
3677.89990  1.254021
3678.75000  1.170507
3679.59009  1.239909
3680.43994  1.194038
3681.29004  1.195112
3682.13989  1.217881
3682.97998  1.176680
3683.83008  1.139174
3684.67993  1.140165
3685.53003  1.187665
3686.37988  1.156384
3687.22998  1.123346
3688.08008  1.129680
3688.92993  1.177091
3689.77002  1.192407
3690.62012  1.231012
3691.46997  1.225152
3692.32007  1.255949
3693.16992  1.301240
3694.03003  1.316595
3694.87988  1.282887
3695.72998  1.328290
3696.58008  1.347163
3697.42993  1.327655
3698.28003  1.338031
3699.12988  1.352022
3699.97998  1.353606
3700.84009  1.369382
3701.68994  1.309407
3702.54004  1.257917
3703.38989  1.266568
3704.25000  1.220946
3705.10010  1.162765
3705.94995  1.181135
3706.81006  1.130838
3707.65991  1.114567
3708.51001  1.081274
3709.37012  1.104071
3710.21997  1.187582
3711.08008  1.187465
3711.92993  1.211917
3712.79004  1.326507
3713.63989  1.313694
3714.50000  1.279809
3715.35010  1.354095
3716.20996  1.288918
3717.06006  1.288242
3717.91992  1.333491
3718.77002  1.251932
3719.62988  1.213414
3720.48999  1.164989
3721.34009  1.127681
3722.19995  1.143317
3723.06006  1.158525
3723.91992  1.203928
3724.77002  1.228614
3725.62988  1.305830
3726.48999  1.340810
3727.35010  1.369892
3728.20996  1.376859
3729.06006  1.377686
3729.91992  1.387625
3730.78003  1.323462
3731.63989  1.260530
3732.50000  1.222209
3733.36011  1.144158
3734.21997  1.052291
3735.08008  0.972417
3735.93994  0.985956
3736.80005  0.937387
3737.65991  0.944656
3738.52002  0.974145
3739.37988  0.981512
3740.23999  1.022395
3741.10010  1.061958
3741.96997  1.069257
3742.83008  1.045817
3743.68994  1.111982
3744.55005  1.096638
3745.40991  1.009463
3746.28003  0.995961
3747.13989  0.964526
3748.00000  0.937009
3748.87012  0.951094
3749.72998  0.932451
3750.59009  0.950141
3751.45996  0.977963
3752.32007  1.018644
3753.17993  1.080512
3754.05005  1.118914
3754.90991  1.114195
3755.78003  1.129420
3756.63989  1.187394
3757.51001  1.209720
3758.37012  1.181744
3759.23999  1.230478
3760.10010  1.145219
3760.96997  1.152871
3761.84009  1.146431
3762.69995  1.095670
3763.57007  1.146086
3764.43994  1.174991
3765.30005  1.145178
3766.16992  1.143596
3767.04004  1.172566
3767.89990  1.128531
3768.77002  1.164630
3769.63989  1.159144
3770.51001  1.142056
3771.37988  1.205457
3772.23999  1.246047
3773.11011  1.213878
3773.97998  1.230542
3774.85010  1.246629
3775.71997  1.312653
3776.59009  1.357404
3777.45996  1.361511
3778.33008  1.432329
3779.19995  1.439586
3780.07007  1.434468
3780.93994  1.441824
3781.81006  1.422841
3782.67993  1.474846
3783.55005  1.449218
3784.41992  1.427433
3785.30005  1.429935
3786.16992  1.371663
3787.04004  1.385494
3787.90991  1.384923
3788.78003  1.310040
3789.65991  1.250652
3790.53003  1.249815
3791.39990  1.198057
3792.28003  1.179875
3793.14990  1.185141
3794.02002  1.141232
3794.89990  1.123298
3795.77002  1.052832
3796.63989  1.078847
3797.52002  1.107846
3798.38989  1.053045
3799.27002  1.048013
3800.13989  1.084495
3801.02002  1.150170
3801.88989  1.183468
3802.77002  1.174969
3803.63989  1.203555
3804.52002  1.275860
3805.39990  1.263913
3806.27002  1.275112
3807.14990  1.322593
3808.03003  1.365285
3808.89990  1.392351
3809.78003  1.325573
3810.65991  1.276844
3811.53003  1.296501
3812.40991  1.276558
3813.29004  1.268220
3814.16992  1.194970
3815.05005  1.205239
3815.92993  1.182042
3816.80005  1.124414
3817.67993  1.182543
3818.56006  1.107662
3819.43994  1.104423
3820.32007  1.065666
3821.19995  1.079919
3822.08008  1.099988
3822.95996  1.062074
3823.84009  1.051141
3824.71997  0.972652
3825.60010  0.945207
3826.47998  1.006183
3827.37012  0.934493
3828.25000  0.904833
3829.12988  0.903654
3830.01001  0.835775
3830.88989  0.794689
3831.77002  0.826464
3832.65991  0.822435
3833.54004  0.811509
3834.41992  0.772428
3835.30005  0.762749
3836.18994  0.773544
3837.07007  0.802623
3837.95996  0.774569
3838.84009  0.795729
3839.71997  0.811527
3840.61011  0.829349
3841.48999  0.912247
3842.37988  0.950680
3843.26001  0.934726
3844.14990  0.985908
3845.03003  1.034843
3845.91992  1.078309
3846.80005  1.068062
3847.68994  1.063859
3848.57007  1.096689
3849.45996  1.069465
3850.35010  1.128049
3851.22998  1.116453
3852.12012  1.145934
3853.01001  1.131467
3853.89990  1.090421
3854.78003  1.131347
3855.66992  1.113411
3856.56006  1.068751
3857.44995  1.080163
3858.33008  1.095994
3859.21997  1.084306
3860.11011  1.062100
3861.00000  1.076049
3861.88989  1.091569
3862.78003  1.078243
3863.66992  1.086308
3864.56006  1.176401
3865.44995  1.141596
3866.34009  1.145668
3867.22998  1.192959
3868.12012  1.186279
3869.01001  1.146846
3869.89990  1.138785
3870.79004  1.143173
3871.67993  1.107589
3872.58008  1.135822
3873.46997  1.101317
3874.36011  1.140301
3875.25000  1.145038
3876.13989  1.116639
3877.04004  1.182142
3877.92993  1.166940
3878.82007  1.112373
3879.71997  1.143804
3880.61011  1.090204
3881.50000  1.084133
3882.39990  1.128550
3883.29004  1.053742
3884.17993  1.134085
3885.08008  1.121006
3885.96997  1.055847
3886.87012  1.107381
3887.76001  1.164316
3888.65991  1.151042
3889.55005  1.184866
3890.44995  1.156842
3891.35010  1.228613
3892.23999  1.225664
3893.13989  1.254171
3894.04004  1.301196
3894.92993  1.369529
3895.83008  1.412684
3896.72998  1.453356
3897.62012  1.401929
3898.52002  1.385278
3899.41992  1.396097
3900.32007  1.410836
3901.20996  1.421421
3902.11011  1.393767
3903.01001  1.394112
3903.90991  1.383580
3904.81006  1.413236
3905.70996  1.431635
3906.61011  1.418233
3907.51001  1.432772
3908.40991  1.484954
3909.31006  1.543844
3910.20996  1.607828
3911.11011  1.542822
3912.01001  1.583405
3912.90991  1.564563
3913.81006  1.583871
3914.70996  1.653947
3915.61011  1.601107
3916.52002  1.555051
3917.41992  1.501444
3918.32007  1.454204
3919.21997  1.441523
3920.12012  1.413551
3921.03003  1.409919
3921.92993  1.377265
3922.83008  1.354918
3923.73999  1.344894
3924.63989  1.339643
3925.54004  1.253600
3926.44995  1.193444
3927.35010  1.138500
3928.26001  1.061699
3929.15991  1.020994
3930.07007  0.899794
3930.96997  0.845591
3931.87988  0.788506
3932.78003  0.679160
3933.68994  0.674401
3934.59009  0.639423
3935.50000  0.662150
3936.40991  0.744104
3937.31006  0.766574
3938.21997  0.767866
3939.12988  0.869954
3940.03003  0.906809
3940.93994  0.931419
3941.85010  1.037877
3942.76001  1.071384
3943.65991  1.131599
3944.57007  1.179989
3945.47998  1.246930
3946.38989  1.328077
3947.30005  1.321627
3948.20996  1.374218
3949.12012  1.404721
3950.03003  1.357972
3950.92993  1.428495
3951.84009  1.500844
3952.75000  1.512253
3953.66992  1.498256
3954.58008  1.522608
3955.48999  1.513141
3956.39990  1.545317
3957.31006  1.534748
3958.21997  1.442939
3959.12988  1.436566
3960.04004  1.348346
3960.94995  1.313268
3961.87012  1.268538
3962.78003  1.127683
3963.68994  1.096379
3964.60010  1.054680
3965.52002  0.925233
3966.42993  0.856870
3967.34009  0.838188
3968.26001  0.799006
3969.16992  0.797377
3970.09009  0.744370
3971.00000  0.813119
3971.90991  0.887966
3972.83008  0.876038
3973.73999  0.976497
3974.65991  1.114820
3975.57007  1.165347
3976.48999  1.230293
3977.40991  1.357733
3978.32007  1.424733
3979.23999  1.519642
3980.14990  1.579561
3981.07007  1.604608
3981.98999  1.672930
3982.89990  1.704566
3983.82007  1.733070
3984.73999  1.785252
3985.65991  1.798696
3986.57007  1.796331
3987.48999  1.824099
3988.40991  1.849048
3989.33008  1.801144
3990.25000  1.850137
3991.16992  1.879069
3992.09009  1.827846
3993.01001  1.887760
3993.91992  1.949786
3994.84009  1.945909
3995.76001  1.904463
3996.67993  1.975013
3997.61011  1.994210
3998.53003  1.944860
3999.44995  1.964545
4000.37012  1.995588
4001.29004  1.975492
4002.20996  2.037230
4003.12988  2.014762
4004.05005  2.008479
4004.97998  2.097944
4005.89990  2.052020
4006.82007  1.982070
4007.73999  1.985192
4008.66992  2.064716
4009.59009  2.037479
4010.51001  2.066367
4011.43994  2.101333
4012.36011  2.056851
4013.28003  2.126829
4014.20996  2.132716
4015.12988  2.160258
4016.06006  2.147489
4016.97998  2.132967
4017.90991  2.183527
4018.83008  2.169226
4019.76001  2.159466
4020.67993  2.157411
4021.61011  2.106249
4022.54004  2.142270
4023.45996  2.135793
4024.38989  2.141103
4025.32007  2.130344
4026.23999  2.086691
4027.16992  2.127127
4028.10010  2.095182
4029.02002  2.076632
4029.94995  2.039534
4030.87988  2.010043
4031.81006  2.030015
4032.73999  2.014140
4033.66992  1.968769
4034.59009  1.959200
4035.52002  2.003084
4036.44995  2.016662
4037.37988  2.009535
4038.31006  2.073129
4039.23999  2.119200
4040.16992  2.148772
4041.10010  2.090060
4042.03003  2.094276
4042.95996  2.077427
4043.89990  2.062213
4044.83008  2.046602
4045.76001  2.007792
4046.68994  2.017010
4047.62012  1.984555
4048.55005  1.977519
4049.48999  2.049067
4050.41992  2.059494
4051.35010  2.049395
4052.28003  2.074597
4053.21997  2.079655
4054.14990  2.075364
4055.08008  2.071149
4056.02002  2.014862
4056.94995  1.993454
4057.88989  1.979645
4058.82007  2.001419
4059.76001  2.030030
4060.68994  1.989412
4061.62988  1.950871
4062.56006  1.985881
4063.50000  1.970976
4064.42993  1.948123
4065.37012  1.944526
4066.30005  1.939217
4067.23999  1.990561
4068.17993  1.982927
4069.11011  1.980193
4070.05005  2.020510
4070.98999  2.006553
4071.92993  1.996577
4072.86011  1.968362
4073.80005  1.990579
4074.73999  1.971806
4075.67993  1.964032
4076.62012  1.986224
4077.56006  1.982713
4078.48999  1.974974
4079.42993  1.979326
4080.37012  2.009841
4081.31006  2.078406
4082.25000  2.082573
4083.18994  2.057857
4084.12988  2.113574
4085.07007  2.113962
4086.01001  2.136190
4086.95996  2.192019
4087.89990  2.204261
4088.84009  2.213598
4089.78003  2.230582
4090.71997  2.273136
4091.65991  2.230192
4092.61011  2.140438
4093.55005  2.145396
4094.48999  2.117901
4095.42993  2.038094
4096.37988  1.990758
4097.31982  1.992952
4098.25977  1.941397
4099.20996  1.818250
4100.14990  1.819268
4101.10010  1.807353
4102.04004  1.823491
4102.97998  1.829872
4103.93018  1.805894
4104.87012  1.838468
4105.81982  1.865367
4106.77002  1.931123
4107.70996  1.935034
4108.66016  1.959436
4109.60010  1.985150
4110.54980  2.029004
4111.50000  2.025730
4112.43994  2.046559
4113.39014  2.093848
4114.33984  2.113068
4115.27979  2.085562
4116.22998  2.071259
4117.18018  2.108499
4118.12988  2.096476
4119.08008  2.138850
4120.02979  2.141522
4120.97021  2.119745
4121.91992  2.069356
4122.87012  2.060962
4123.81982  2.103348
4124.77002  2.066611
4125.72021  2.098064
4126.66992  2.086298
4127.62012  2.053006
4128.56982  2.043224
4129.52002  2.068689
4130.47021  2.057440
4131.43018  2.032575
4132.37988  1.987899
4133.33008  1.995965
4134.27979  1.998296
4135.22998  1.994126
4136.18018  2.017036
4137.14014  2.048010
4138.08984  2.058176
4139.04004  2.050934
4140.00000  2.057701
4140.95020  2.085443
4141.89990  2.059370
4142.85986  2.004516
4143.81006  1.999407
4144.75977  1.972158
4145.72021  1.987650
4146.66992  1.982176
4147.62988  1.968887
4148.58008  1.976660
4149.54004  2.007337
4150.49023  1.992004
4151.45020  1.996768
4152.41016  1.980515
4153.35986  1.986954
4154.31982  1.952978
4155.27979  1.926064
4156.22998  1.944858
4157.18994  2.004799
4158.14990  1.980087
4159.10010  2.011133
4160.06006  2.051472
4161.02002  2.058936
4161.97998  2.083229
4162.93994  2.105028
4163.89990  2.073949
4164.85010  2.088884
4165.81006  2.077680
4166.77002  2.039406
4167.72998  2.056477
4168.68994  2.040553
4169.64990  2.053937
4170.60986  2.039745
4171.56982  1.977553
4172.52979  1.952338
4173.49023  1.945252
4174.45996  1.904309
4175.41992  1.917001
4176.37988  1.899221
4177.33984  1.914853
4178.29980  1.916079
4179.25977  1.944005
4180.22998  1.983295
4181.18994  1.963433
4182.14990  1.988128
4183.12012  2.032304
4184.08008  2.057667
4185.04004  2.034255
4186.00977  2.052916
4186.97021  2.060052
4187.93018  2.037068
4188.89990  2.094106
4189.85986  2.050820
4190.83008  2.064684
4191.79004  2.057324
4192.75977  2.056719
4193.72021  2.057299
4194.68994  2.057125
4195.66016  2.039283
4196.62012  2.031949
4197.58984  1.994759
4198.56006  1.998006
4199.52002  1.978714
4200.49023  2.002669
4201.45996  1.991169
4202.41992  2.008691
4203.39014  2.039320
4204.35986  2.020162
4205.33008  2.037630
4206.29980  2.100063
4207.27002  2.133809
4208.22998  2.153197
4209.20020  2.205598
4210.16992  2.180250
4211.14014  2.139207
4212.10986  2.164281
4213.08008  2.163663
4214.04980  2.128639
4215.02002  2.138770
4215.99023  2.126054
4216.95996  2.141312
4217.93018  2.209165
4218.91016  2.184024
4219.87988  2.199344
4220.85010  2.222581
4221.81982  2.215344
4222.79004  2.166204
4223.77002  2.104418
4224.74023  2.062115
4225.70996  2.021613
4226.68018  1.996942
4227.66016  1.965529
4228.62988  1.944726
4229.60986  1.962662
4230.58008  2.028548
4231.54980  2.057163
4232.52979  2.111434
4233.50000  2.101063
4234.47998  2.153937
4235.45020  2.171927
4236.43018  2.132107
4237.39990  2.176748
4238.37988  2.200357
4239.35986  2.222013
4240.33008  2.205150
4241.31006  2.239084
4242.29004  2.257096
4243.25977  2.250666
4244.24023  2.305557
4245.22021  2.256644
4246.18994  2.313608
4247.16992  2.278647
4248.14990  2.283101
4249.12988  2.252478
4250.10986  2.210916
4251.08984  2.173054
4252.06006  2.182337
4253.04004  2.199419
4254.02002  2.206630
4255.00000  2.142654
4255.97998  2.169079
4256.95996  2.189883
4257.93994  2.186632
4258.91992  2.195760
4259.89990  2.168015
4260.89014  2.184530
4261.87012  2.230144
4262.85010  2.205371
4263.83008  2.214596
4264.81006  2.276870
4265.79004  2.283854
4266.77979  2.235210
4267.75977  2.227948
4268.74023  2.259386
4269.72021  2.196292
4270.70996  2.107472
4271.68994  2.099730
4272.68018  2.074860
4273.66016  2.054247
4274.64014  2.039130
4275.62988  2.032056
4276.60986  2.088210
4277.60010  2.102010
4278.58008  2.122106
4279.56982  2.121933
4280.54980  2.161688
4281.54004  2.177876
4282.52002  2.214142
4283.50977  2.208186
4284.50000  2.174410
4285.47998  2.112402
4286.47021  2.132145
4287.45996  2.097223
4288.45020  2.043759
4289.43018  2.069903
4290.41992  2.018734
4291.41016  2.041577
4292.39990  1.998992
4293.39014  2.019510
4294.37012  2.007595
4295.35986  1.980118
4296.35010  1.970418
4297.33984  1.940839
4298.33008  1.880725
4299.31982  1.812055
4300.31006  1.827797
4301.29980  1.771520
4302.29004  1.710013
4303.27979  1.675092
4304.27002  1.675870
4305.25977  1.641153
4306.25977  1.654114
4307.25000  1.643389
4308.24023  1.635167
4309.22998  1.659406
4310.22021  1.714438
4311.22021  1.793493
4312.20996  1.860984
4313.20020  1.910869
4314.20020  1.990665
4315.18994  2.131771
4316.18018  2.209333
4317.18018  2.256273
4318.16992  2.303370
4319.16992  2.360354
4320.16016  2.383723
4321.16016  2.376769
4322.14990  2.335113
4323.14990  2.291598
4324.14014  2.286986
4325.14014  2.253581
4326.12988  2.216126
4327.12988  2.219527
4328.12988  2.218506
4329.12012  2.268959
4330.12012  2.322515
4331.12012  2.332000
4332.10986  2.377348
4333.10986  2.426490
4334.10986  2.397770
4335.10986  2.385990
4336.10986  2.380555
4337.10010  2.347640
4338.10010  2.287124
4339.10010  2.243619
4340.10010  2.208103
4341.10010  2.191882
4342.10010  2.143775
4343.10010  2.173738
4344.10010  2.200159
4345.10010  2.225880
4346.10010  2.283453
4347.10010  2.315242
4348.10010  2.362658
4349.10010  2.380943
4350.10986  2.392699
4351.10986  2.386295
4352.10986  2.404854
4353.10986  2.384420
4354.10986  2.379567
4355.12012  2.364717
4356.12012  2.381993
4357.12012  2.408833
4358.12988  2.422742
4359.12988  2.458636
4360.12988  2.508005
4361.14014  2.505346
4362.14014  2.554528
4363.14990  2.567220
4364.14990  2.566414
4365.16016  2.582826
4366.16016  2.571689
4367.16992  2.577269
4368.16992  2.579024
4369.18018  2.557965
4370.18994  2.542531
4371.18994  2.511722
4372.20020  2.465567
4373.20996  2.423947
4374.20996  2.427233
4375.22021  2.404914
4376.22998  2.392661
4377.24023  2.383445
4378.24023  2.404992
4379.25000  2.371262
4380.25977  2.331557
4381.27002  2.273474
4382.27979  2.289034
4383.29004  2.251796
4384.29980  2.170702
4385.31006  2.169946
4386.31982  2.161125
4387.33008  2.173385
4388.33984  2.190917
4389.35010  2.214566
4390.35986  2.258060
4391.37012  2.294800
4392.37988  2.328205
4393.39014  2.357432
4394.39990  2.363497
4395.41016  2.367333
4396.43018  2.389849
4397.43994  2.419640
4398.45020  2.430681
4399.47021  2.429450
4400.47998  2.402918
